'Id: "" Comment: "" Operator: "Lab Manager" Anode: "Cu" Scantype: "Coupled TwoTheta/Theta" TimePerStep: "57.3" X: "0" Y: "0" Z: "31.112" 
15.0001 0.087
15.0298 0.000
15.0594 0.000
15.0891 0.000
15.1187 0.017
15.1484 0.017
15.1780 0.000
15.2077 0.000
15.2374 0.017
15.2670 0.017
15.2967 0.035
15.3263 0.017
15.3560 0.017
15.3856 0.000
15.4153 0.017
15.4449 0.000
15.4746 0.000
15.5043 0.017
15.5339 0.000
15.5636 0.017
15.5932 0.017
15.6229 0.000
15.6525 0.000
15.6822 0.035
15.7119 0.035
15.7415 0.017
15.7712 0.017
15.8008 0.000
15.8305 0.017
15.8601 0.017
15.8898 0.017
15.9194 0.000
15.9491 0.000
15.9788 0.035
16.0084 0.017
16.0381 0.000
16.0677 0.052
16.0974 0.035
16.1270 0.035
16.1567 0.000
16.1864 0.035
16.2160 0.017
16.2457 0.017
16.2753 0.000
16.3050 0.000
16.3346 0.017
16.3643 0.017
16.3939 0.000
16.4236 0.000
16.4533 0.000
16.4829 0.000
16.5126 0.000
16.5422 0.017
16.5719 0.017
16.6015 0.017
16.6312 0.000
16.6609 0.000
16.6905 0.000
16.7202 0.000
16.7498 0.017
16.7795 0.017
16.8091 0.087
16.8388 0.000
16.8684 0.017
16.8981 0.017
16.9278 0.035
16.9574 0.000
16.9871 0.000
17.0167 0.000
17.0464 0.017
17.0760 0.035
17.1057 0.017
17.1354 0.000
17.1650 0.017
17.1947 0.000
17.2243 0.000
17.2540 0.017
17.2836 0.000
17.3133 0.000
17.3429 0.035
17.3726 0.000
17.4023 0.070
17.4319 0.035
17.4616 0.017
17.4912 0.000
17.5209 0.000
17.5505 0.017
17.5802 0.017
17.6099 0.000
17.6395 0.000
17.6692 0.000
17.6988 0.000
17.7285 0.017
17.7581 0.000
17.7878 0.000
17.8175 0.000
17.8471 0.017
17.8768 0.017
17.9064 0.017
17.9361 0.000
17.9657 0.000
17.9954 0.000
18.0250 0.000
18.0547 0.052
18.0844 0.000
18.1140 0.017
18.1437 0.000
18.1733 0.000
18.2030 0.000
18.2326 0.000
18.2623 0.000
18.2920 0.017
18.3216 0.000
18.3513 0.017
18.3809 0.017
18.4106 0.000
18.4402 0.000
18.4699 0.017
18.4995 0.000
18.5292 0.017
18.5589 0.000
18.5885 0.000
18.6182 0.000
18.6478 0.017
18.6775 0.017
18.7071 0.000
18.7368 0.000
18.7665 0.017
18.7961 0.000
18.8258 0.000
18.8554 0.000
18.8851 0.000
18.9147 0.000
18.9444 0.000
18.9740 0.000
19.0037 0.017
19.0334 0.035
19.0630 0.017
19.0927 0.017
19.1223 0.000
19.1520 0.000
19.1816 0.000
19.2113 0.000
19.2410 0.000
19.2706 0.000
19.3003 0.017
19.3299 0.017
19.3596 0.035
19.3892 0.035
19.4189 0.000
19.4485 0.017
19.4782 0.000
19.5079 0.000
19.5375 0.000
19.5672 0.000
19.5968 0.000
19.6265 0.000
19.6561 0.000
19.6858 0.017
19.7155 0.017
19.7451 0.000
19.7748 0.000
19.8044 0.000
19.8341 0.000
19.8637 0.017
19.8934 0.000
19.9230 0.017
19.9527 0.000
19.9824 0.000
20.0120 0.000
20.0417 0.000
20.0713 0.000
20.1010 0.000
20.1306 0.000
20.1603 0.000
20.1900 0.000
20.2196 0.017
20.2493 0.000
20.2789 0.000
20.3086 0.000
20.3382 0.000
20.3679 0.035
20.3975 0.000
20.4272 0.035
20.4569 0.017
20.4865 0.000
20.5162 0.000
20.5458 0.000
20.5755 0.000
20.6051 0.000
20.6348 0.000
20.6645 0.000
20.6941 0.035
20.7238 0.000
20.7534 0.000
20.7831 0.017
20.8127 0.017
20.8424 0.000
20.8721 0.000
20.9017 0.000
20.9314 0.017
20.9610 0.000
20.9907 0.000
21.0203 0.000
21.0500 0.000
21.0796 0.017
21.1093 0.017
21.1390 0.000
21.1686 0.000
21.1983 0.000
21.2279 0.017
21.2576 0.017
21.2872 0.000
21.3169 0.000
21.3466 0.000
21.3762 0.000
21.4059 0.000
21.4355 0.000
21.4652 0.000
21.4948 0.017
21.5245 0.000
21.5541 0.000
21.5838 0.000
21.6135 0.000
21.6431 0.000
21.6728 0.000
21.7024 0.017
21.7321 0.000
21.7617 0.000
21.7914 0.000
21.8211 0.035
21.8507 0.000
21.8804 0.000
21.9100 0.035
21.9397 0.000
21.9693 0.000
21.9990 0.000
22.0286 0.000
22.0583 0.035
22.0880 0.000
22.1176 0.000
22.1473 0.000
22.1769 0.052
22.2066 0.017
22.2362 0.000
22.2659 0.000
22.2956 0.000
22.3252 0.017
22.3549 0.000
22.3845 0.000
22.4142 0.000
22.4438 0.000
22.4735 0.017
22.5031 0.000
22.5328 0.035
22.5625 0.000
22.5921 0.000
22.6218 0.017
22.6514 0.017
22.6811 0.000
22.7107 0.017
22.7404 0.017
22.7701 0.017
22.7997 0.017
22.8294 0.000
22.8590 0.000
22.8887 0.000
22.9183 0.000
22.9480 0.017
22.9776 0.017
23.0073 0.000
23.0370 0.017
23.0666 0.000
23.0963 0.017
23.1259 0.000
23.1556 0.000
23.1852 0.017
23.2149 0.035
23.2446 0.000
23.2742 0.000
23.3039 0.017
23.3335 0.017
23.3632 0.000
23.3928 0.000
23.4225 0.017
23.4522 0.000
23.4818 0.000
23.5115 0.000
23.5411 0.000
23.5708 0.017
23.6004 0.000
23.6301 0.000
23.6597 0.000
23.6894 0.017
23.7191 0.017
23.7487 0.017
23.7784 0.000
23.8080 0.000
23.8377 0.000
23.8673 0.000
23.8970 0.000
23.9267 0.017
23.9563 0.000
23.9860 0.000
24.0156 0.000
24.0453 0.000
24.0749 0.000
24.1046 0.017
24.1342 0.000
24.1639 0.000
24.1936 0.000
24.2232 0.000
24.2529 0.000
24.2825 0.000
24.3122 0.000
24.3418 0.000
24.3715 0.000
24.4012 0.000
24.4308 0.000
24.4605 0.000
24.4901 0.000
24.5198 0.000
24.5494 0.000
24.5791 0.000
24.6087 0.000
24.6384 0.000
24.6681 0.000
24.6977 0.017
24.7274 0.000
24.7570 0.000
24.7867 0.000
24.8163 0.000
24.8460 0.000
24.8757 0.017
24.9053 0.017
24.9350 0.052
24.9646 0.000
24.9943 0.000
25.0239 0.000
25.0536 0.000
25.0832 0.000
25.1129 0.000
25.1426 0.000
25.1722 0.000
25.2019 0.000
25.2315 0.017
25.2612 0.000
25.2908 0.000
25.3205 0.017
25.3502 0.035
25.3798 0.017
25.4095 0.000
25.4391 0.017
25.4688 0.017
25.4984 0.017
25.5281 0.000
25.5577 0.000
25.5874 0.017
25.6171 0.000
25.6467 0.000
25.6764 0.000
25.7060 0.000
25.7357 0.000
25.7653 0.000
25.7950 0.000
25.8247 0.035
25.8543 0.017
25.8840 0.000
25.9136 0.052
25.9433 0.000
25.9729 0.017
26.0026 0.000
26.0323 0.017
26.0619 0.000
26.0916 0.017
26.1212 0.000
26.1509 0.000
26.1805 0.000
26.2102 0.000
26.2398 0.000
26.2695 0.000
26.2992 0.017
26.3288 0.000
26.3585 0.000
26.3881 0.000
26.4178 0.000
26.4474 0.000
26.4771 0.000
26.5068 0.017
26.5364 0.000
26.5661 0.017
26.5957 0.017
26.6254 0.000
26.6550 0.017
26.6847 0.017
26.7143 0.017
26.7440 0.000
26.7737 0.000
26.8033 0.017
26.8330 0.000
26.8626 0.017
26.8923 0.000
26.9219 0.000
26.9516 0.017
26.9813 0.000
27.0109 0.000
27.0406 0.000
27.0702 0.000
27.0999 0.000
27.1295 0.000
27.1592 0.017
27.1888 0.000
27.2185 0.000
27.2482 0.000
27.2778 0.000
27.3075 0.017
27.3371 0.000
27.3668 0.000
27.3964 0.035
27.4261 0.000
27.4558 0.000
27.4854 0.000
27.5151 0.000
27.5447 0.000
27.5744 0.017
27.6040 0.000
27.6337 0.000
27.6633 0.000
27.6930 0.000
27.7227 0.000
27.7523 0.000
27.7820 0.000
27.8116 0.000
27.8413 0.000
27.8709 0.000
27.9006 0.017
27.9303 0.000
27.9599 0.000
27.9896 0.000
28.0192 0.000
28.0489 0.000
28.0785 0.000
28.1082 0.000
28.1378 0.000
28.1675 0.000
28.1972 0.000
28.2268 0.000
28.2565 0.000
28.2861 0.000
28.3158 0.000
28.3454 0.000
28.3751 0.000
28.4048 0.000
28.4344 0.000
28.4641 0.000
28.4937 0.000
28.5234 0.035
28.5530 0.000
28.5827 0.000
28.6123 0.000
28.6420 0.000
28.6717 0.000
28.7013 0.000
28.7310 0.017
28.7606 0.000
28.7903 0.000
28.8199 0.000
28.8496 0.000
28.8793 0.000
28.9089 0.017
28.9386 0.017
28.9682 0.000
28.9979 0.000
29.0275 0.000
29.0572 0.000
29.0869 0.017
29.1165 0.017
29.1462 0.000
29.1758 0.017
29.2055 0.017
29.2351 0.017
29.2648 0.000
29.2944 0.000
29.3241 0.000
29.3538 0.035
29.3834 0.000
29.4131 0.000
29.4427 0.000
29.4724 0.000
29.5020 0.000
29.5317 0.000
29.5614 0.017
29.5910 0.035
29.6207 0.000
29.6503 0.000
29.6800 0.000
29.7096 0.000
29.7393 0.000
29.7689 0.000
29.7986 0.000
29.8283 0.000
29.8579 0.000
29.8876 0.000
29.9172 0.017
29.9469 0.000
29.9765 0.000
30.0062 0.017
30.0359 0.000
30.0655 0.000
30.0952 0.035
30.1248 0.017
30.1545 0.000
30.1841 0.017
30.2138 0.000
30.2434 0.035
30.2731 0.000
30.3028 0.000
30.3324 0.000
30.3621 0.000
30.3917 0.000
30.4214 0.017
30.4510 0.000
30.4807 0.017
30.5104 0.000
30.5400 0.000
30.5697 0.000
30.5993 0.000
30.6290 0.000
30.6586 0.017
30.6883 0.017
30.7179 0.000
30.7476 0.000
30.7773 0.000
30.8069 0.017
30.8366 0.000
30.8662 0.000
30.8959 0.000
30.9255 0.017
30.9552 0.000
30.9849 0.017
31.0145 0.000
31.0442 0.000
31.0738 0.000
31.1035 0.000
31.1331 0.000
31.1628 0.000
31.1924 0.000
31.2221 0.000
31.2518 0.000
31.2814 0.000
31.3111 0.000
31.3407 0.000
31.3704 0.000
31.4000 0.000
31.4297 0.000
31.4594 0.000
31.4890 0.000
31.5187 0.000
31.5483 0.000
31.5780 0.017
31.6076 0.000
31.6373 0.000
31.6670 0.000
31.6966 0.000
31.7263 0.000
31.7559 0.000
31.7856 0.000
31.8152 0.000
31.8449 0.017
31.8745 0.000
31.9042 0.000
31.9339 0.000
31.9635 0.017
31.9932 0.000
32.0228 0.000
32.0525 0.000
32.0821 0.000
32.1118 0.000
32.1415 0.000
32.1711 0.000
32.2008 0.000
32.2304 0.000
32.2601 0.000
32.2897 0.017
32.3194 0.000
32.3490 0.000
32.3787 0.017
32.4084 0.000
32.4380 0.017
32.4677 0.017
32.4973 0.000
32.5270 0.017
32.5566 0.000
32.5863 0.017
32.6160 0.000
32.6456 0.000
32.6753 0.000
32.7049 0.000
32.7346 0.000
32.7642 0.000
32.7939 0.000
32.8235 0.000
32.8532 0.000
32.8829 0.000
32.9125 0.000
32.9422 0.000
32.9718 0.000
33.0015 0.000
33.0311 0.000
33.0608 0.000
33.0905 0.000
33.1201 0.000
33.1498 0.000
33.1794 0.000
33.2091 0.000
33.2387 0.000
33.2684 0.000
33.2980 0.000
33.3277 0.017
33.3574 0.000
33.3870 0.000
33.4167 0.000
33.4463 0.000
33.4760 0.000
33.5056 0.000
33.5353 0.000
33.5650 0.000
33.5946 0.000
33.6243 0.000
33.6539 0.017
33.6836 0.017
33.7132 0.000
33.7429 0.000
33.7725 0.000
33.8022 0.000
33.8319 0.000
33.8615 0.000
33.8912 0.000
33.9208 0.017
33.9505 0.017
33.9801 0.000
34.0098 0.000
34.0395 0.000
34.0691 0.000
34.0988 0.000
34.1284 0.000
34.1581 0.000
34.1877 0.000
34.2174 0.000
34.2470 0.000
34.2767 0.000
34.3064 0.000
34.3360 0.000
34.3657 0.000
34.3953 0.000
34.4250 0.000
34.4546 0.017
34.4843 0.000
34.5140 0.000
34.5436 0.035
34.5733 0.000
34.6029 0.000
34.6326 0.000
34.6622 0.017
34.6919 0.017
34.7216 0.000
34.7512 0.000
34.7809 0.000
34.8105 0.000
34.8402 0.035
34.8698 0.000
34.8995 0.000
34.9291 0.000
34.9588 0.000
34.9885 0.000
35.0181 0.035
35.0478 0.000
35.0774 0.000
35.1071 0.000
35.1367 0.000
35.1664 0.000
35.1961 0.035
35.2257 0.000
35.2554 0.017
35.2850 0.017
35.3147 0.000
35.3443 0.000
35.3740 0.000
35.4036 0.000
35.4333 0.000
35.4630 0.000
35.4926 0.000
35.5223 0.000
35.5519 0.000
35.5816 0.000
35.6112 0.017
35.6409 0.000
35.6706 0.000
35.7002 0.000
35.7299 0.000
35.7595 0.000
35.7892 0.000
35.8188 0.000
35.8485 0.000
35.8781 0.000
35.9078 0.000
35.9375 0.000
35.9671 0.017
35.9968 0.000
36.0264 0.000
36.0561 0.000
36.0857 0.017
36.1154 0.000
36.1451 0.000
36.1747 0.000
36.2044 0.017
36.2340 0.000
36.2637 0.017
36.2933 0.000
36.3230 0.000
36.3526 0.000
36.3823 0.000
36.4120 0.000
36.4416 0.000
36.4713 0.000
36.5009 0.000
36.5306 0.000
36.5602 0.000
36.5899 0.000
36.6196 0.017
36.6492 0.000
36.6789 0.000
36.7085 0.035
36.7382 0.000
36.7678 0.000
36.7975 0.017
36.8271 0.017
36.8568 0.017
36.8865 0.000
36.9161 0.000
36.9458 0.017
36.9754 0.017
37.0051 0.017
37.0347 0.000
37.0644 0.000
37.0941 0.000
37.1237 0.000
37.1534 0.000
37.1830 0.017
37.2127 0.000
37.2423 0.000
37.2720 0.000
37.3017 0.000
37.3313 0.000
37.3610 0.000
37.3906 0.017
37.4203 0.000
37.4499 0.000
37.4796 0.017
37.5092 0.000
37.5389 0.000
37.5686 0.000
37.5982 0.000
37.6279 0.000
37.6575 0.017
37.6872 0.000
37.7168 0.035
37.7465 0.017
37.7762 0.000
37.8058 0.000
37.8355 0.000
37.8651 0.087
37.8948 0.017
37.9244 0.000
37.9541 0.035
37.9837 0.035
38.0134 0.000
38.0431 0.000
38.0727 0.000
38.1024 0.000
38.1320 0.000
38.1617 0.000
38.1913 0.000
38.2210 0.000
38.2507 0.017
38.2803 0.000
38.3100 0.000
38.3396 0.000
38.3693 0.000
38.3989 0.000
38.4286 0.000
38.4582 0.000
38.4879 0.000
38.5176 0.000
38.5472 0.017
38.5769 0.000
38.6065 0.000
38.6362 0.000
38.6658 0.000
38.6955 0.000
38.7252 0.000
38.7548 0.017
38.7845 0.035
38.8141 0.000
38.8438 0.017
38.8734 0.000
38.9031 0.000
38.9327 0.000
38.9624 0.000
38.9921 0.000
39.0217 0.000
39.0514 0.000
39.0810 0.000
39.1107 0.000
39.1403 0.000
39.1700 0.000
39.1997 0.000
39.2293 0.000
39.2590 0.000
39.2886 0.000
39.3183 0.000
39.3479 0.000
39.3776 0.000
39.4072 0.000
39.4369 0.000
39.4666 0.017
39.4962 0.000
39.5259 0.000
39.5555 0.000
39.5852 0.000
39.6148 0.000
39.6445 0.017
39.6742 0.000
39.7038 0.000
39.7335 0.000
39.7631 0.000
39.7928 0.017
39.8224 0.000
39.8521 0.017
39.8818 0.017
39.9114 0.000
39.9411 0.000
39.9707 0.000
40.0004 0.000
40.0300 0.000
40.0597 0.000
40.0893 0.000
40.1190 0.000
40.1487 0.000
40.1783 0.017
40.2080 0.000
40.2376 0.000
40.2673 0.000
40.2969 0.000
40.3266 0.000
40.3563 0.000
40.3859 0.000
40.4156 0.000
40.4452 0.017
40.4749 0.000
40.5045 0.000
40.5342 0.000
40.5638 0.000
40.5935 0.000
40.6232 0.000
40.6528 0.000
40.6825 0.000
40.7121 0.000
40.7418 0.000
40.7714 0.000
40.8011 0.017
40.8308 0.017
40.8604 0.017
40.8901 0.000
40.9197 0.000
40.9494 0.000
40.9790 0.000
41.0087 0.017
41.0383 0.000
41.0680 0.000
41.0977 0.000
41.1273 0.017
41.1570 0.000
41.1866 0.017
41.2163 0.017
41.2459 0.000
41.2756 0.017
41.3053 0.000
41.3349 0.017
41.3646 0.000
41.3942 0.000
41.4239 0.000
41.4535 0.000
41.4832 0.000
41.5128 0.000
41.5425 0.000
41.5722 0.017
41.6018 0.017
41.6315 0.035
41.6611 0.017
41.6908 0.017
41.7204 0.017
41.7501 0.000
41.7798 0.000
41.8094 0.035
41.8391 0.017
41.8687 0.000
41.8984 0.000
41.9280 0.000
41.9577 0.000
41.9873 0.017
42.0170 0.000
42.0467 0.000
42.0763 0.000
42.1060 0.000
42.1356 0.000
42.1653 0.017
42.1949 0.000
42.2246 0.000
42.2543 0.000
42.2839 0.000
42.3136 0.000
42.3432 0.000
42.3729 0.000
42.4025 0.000
42.4322 0.000
42.4618 0.000
42.4915 0.000
42.5212 0.000
42.5508 0.000
42.5805 0.000
42.6101 0.000
42.6398 0.000
42.6694 0.000
42.6991 0.000
42.7288 0.000
42.7584 0.000
42.7881 0.017
42.8177 0.000
42.8474 0.000
42.8770 0.000
42.9067 0.000
42.9364 0.017
42.9660 0.000
42.9957 0.000
43.0253 0.000
43.0550 0.000
43.0846 0.017
43.1143 0.000
43.1439 0.017
43.1736 0.017
43.2033 0.017
43.2329 0.000
43.2626 0.035
43.2922 0.175
43.3219 0.541
43.3515 0.157
43.3812 0.105
43.4109 0.192
43.4405 0.349
43.4702 0.157
43.4998 0.000
43.5295 0.017
43.5591 0.000
43.5888 0.052
43.6184 0.000
43.6481 0.000
43.6778 0.000
43.7074 0.000
43.7371 0.000
43.7667 0.000
43.7964 0.017
43.8260 0.000
43.8557 0.000
43.8854 0.000
43.9150 0.017
43.9447 0.000
43.9743 0.000
44.0040 0.000
44.0336 0.000
44.0633 0.017
44.0929 0.000
44.1226 0.000
44.1523 0.000
44.1819 0.000
44.2116 0.000
44.2412 0.000
44.2709 0.000
44.3005 0.000
44.3302 0.000
44.3599 0.000
44.3895 0.000
44.4192 0.000
44.4488 0.000
44.4785 0.000
44.5081 0.000
44.5378 0.000
44.5674 0.000
44.5971 0.000
44.6268 0.000
44.6564 0.000
44.6861 0.000
44.7157 0.000
44.7454 0.000
44.7750 0.017
44.8047 0.000
44.8344 0.000
44.8640 0.000
44.8937 0.017
44.9233 0.000
44.9530 0.000
44.9826 0.017
45.0123 0.000
45.0419 0.000
45.0716 0.017
45.1013 0.000
45.1309 0.000
45.1606 0.000
45.1902 0.000
45.2199 0.000
45.2495 0.000
45.2792 0.000
45.3089 0.000
45.3385 0.000
45.3682 0.000
45.3978 0.000
45.4275 0.000
45.4571 0.000
45.4868 0.000
45.5165 0.000
45.5461 0.000
45.5758 0.017
45.6054 0.000
45.6351 0.000
45.6647 0.017
45.6944 0.000
45.7240 0.000
45.7537 0.000
45.7834 0.000
45.8130 0.000
45.8427 0.000
45.8723 0.000
45.9020 0.000
45.9316 0.000
45.9613 0.000
45.9910 0.000
46.0206 0.000
46.0503 0.017
46.0799 0.000
46.1096 0.000
46.1392 0.017
46.1689 0.000
46.1985 0.000
46.2282 0.070
46.2579 0.000
46.2875 0.000
46.3172 0.017
46.3468 0.052
46.3765 0.017
46.4061 0.000
46.4358 0.000
46.4655 0.017
46.4951 0.000
46.5248 0.000
46.5544 0.000
46.5841 0.000
46.6137 0.000
46.6434 0.000
46.6730 0.017
46.7027 0.000
46.7324 0.000
46.7620 0.000
46.7917 0.000
46.8213 0.000
46.8510 0.000
46.8806 0.000
46.9103 0.000
46.9400 0.000
46.9696 0.000
46.9993 0.000
47.0289 0.000
47.0586 0.000
47.0882 0.000
47.1179 0.000
47.1475 0.000
47.1772 0.000
47.2069 0.000
47.2365 0.000
47.2662 0.000
47.2958 0.000
47.3255 0.000
47.3551 0.000
47.3848 0.000
47.4145 0.000
47.4441 0.000
47.4738 0.000
47.5034 0.000
47.5331 0.000
47.5627 0.000
47.5924 0.000
47.6220 0.000
47.6517 0.000
47.6814 0.000
47.7110 0.000
47.7407 0.000
47.7703 0.000
47.8000 0.000
47.8296 0.000
47.8593 0.000
47.8890 0.000
47.9186 0.000
47.9483 0.000
47.9779 0.000
48.0076 0.000
48.0372 0.000
48.0669 0.000
48.0966 0.000
48.1262 0.000
48.1559 0.000
48.1855 0.017
48.2152 0.000
48.2448 0.000
48.2745 0.000
48.3041 0.000
48.3338 0.000
48.3635 0.017
48.3931 0.000
48.4228 0.000
48.4524 0.017
48.4821 0.000
48.5117 0.000
48.5414 0.000
48.5711 0.000
48.6007 0.017
48.6304 0.000
48.6600 0.000
48.6897 0.000
48.7193 0.000
48.7490 0.000
48.7786 0.000
48.8083 0.000
48.8380 0.035
48.8676 0.000
48.8973 0.000
48.9269 0.000
48.9566 0.000
48.9862 0.000
49.0159 0.000
49.0456 0.000
49.0752 0.000
49.1049 0.000
49.1345 0.000
49.1642 0.000
49.1938 0.000
49.2235 0.000
49.2531 0.000
49.2828 0.000
49.3125 0.000
49.3421 0.000
49.3718 0.000
49.4014 0.000
49.4311 0.000
49.4607 0.000
49.4904 0.000
49.5201 0.000
49.5497 0.000
49.5794 0.000
49.6090 0.000
49.6387 0.000
49.6683 0.000
49.6980 0.000
49.7276 0.000
49.7573 0.000
49.7870 0.000
49.8166 0.000
49.8463 0.000
49.8759 0.000
49.9056 0.000
49.9352 0.000
49.9649 0.000
49.9946 0.000
50.0242 0.000
50.0539 0.000
50.0835 0.000
50.1132 0.000
50.1428 0.000
50.1725 0.000
50.2021 0.000
50.2318 0.000
50.2615 0.000
50.2911 0.000
50.3208 0.000
50.3504 0.000
50.3801 0.000
50.4097 0.000
50.4394 0.000
50.4691 0.000
50.4987 0.017
50.5284 0.000
50.5580 0.000
50.5877 0.017
50.6173 0.000
50.6470 0.000
50.6766 0.000
50.7063 0.000
50.7360 0.000
50.7656 0.000
50.7953 0.000
50.8249 0.000
50.8546 0.000
50.8842 0.000
50.9139 0.000
50.9436 0.000
50.9732 0.017
51.0029 0.000
51.0325 0.000
51.0622 0.000
51.0918 0.000
51.1215 0.000
51.1512 0.000
51.1808 0.000
51.2105 0.000
51.2401 0.000
51.2698 0.000
51.2994 0.000
51.3291 0.017
51.3587 0.000
51.3884 0.017
51.4181 0.000
51.4477 0.000
51.4774 0.000
51.5070 0.000
51.5367 0.000
51.5663 0.000
51.5960 0.000
51.6257 0.000
51.6553 0.000
51.6850 0.000
51.7146 0.000
51.7443 0.000
51.7739 0.000
51.8036 0.000
51.8332 0.000
51.8629 0.000
51.8926 0.000
51.9222 0.000
51.9519 0.000
51.9815 0.000
52.0112 0.000
52.0408 0.000
52.0705 0.000
52.1002 0.000
52.1298 0.000
52.1595 0.017
52.1891 0.000
52.2188 0.000
52.2484 0.000
52.2781 0.000
52.3077 0.000
52.3374 0.000
52.3671 0.000
52.3967 0.000
52.4264 0.000
52.4560 0.000
52.4857 0.000
52.5153 0.000
52.5450 0.000
52.5747 0.017
52.6043 0.017
52.6340 0.017
52.6636 0.017
52.6933 0.000
52.7229 0.035
52.7526 0.017
52.7822 0.000
52.8119 0.000
52.8416 0.000
52.8712 0.000
52.9009 0.000
52.9305 0.000
52.9602 0.000
52.9898 0.000
53.0195 0.000
53.0492 0.000
53.0788 0.000
53.1085 0.000
53.1381 0.000
53.1678 0.000
53.1974 0.000
53.2271 0.000
53.2567 0.017
53.2864 0.000
53.3161 0.017
53.3457 0.000
53.3754 0.000
53.4050 0.000
53.4347 0.000
53.4643 0.000
53.4940 0.000
53.5237 0.000
53.5533 0.000
53.5830 0.000
53.6126 0.000
53.6423 0.000
53.6719 0.000
53.7016 0.000
53.7313 0.000
53.7609 0.000
53.7906 0.017
53.8202 0.000
53.8499 0.000
53.8795 0.000
53.9092 0.000
53.9388 0.000
53.9685 0.000
53.9982 0.000
54.0278 0.000
54.0575 0.000
54.0871 0.000
54.1168 0.000
54.1464 0.000
54.1761 0.017
54.2058 0.035
54.2354 0.000
54.2651 0.000
54.2947 0.000
54.3244 0.000
54.3540 0.000
54.3837 0.000
54.4133 0.000
54.4430 0.000
54.4727 0.000
54.5023 0.000
54.5320 0.000
54.5616 0.000
54.5913 0.000
54.6209 0.000
54.6506 0.000
54.6803 0.000
54.7099 0.000
54.7396 0.000
54.7692 0.000
54.7989 0.000
54.8285 0.000
54.8582 0.000
54.8878 0.000
54.9175 0.000
54.9472 0.000
54.9768 0.000
55.0065 0.000
55.0361 0.000
55.0658 0.000
55.0954 0.000
55.1251 0.000
55.1548 0.000
55.1844 0.017
55.2141 0.000
55.2437 0.000
55.2734 0.000
55.3030 0.000
55.3327 0.017
55.3623 0.000
55.3920 0.000
55.4217 0.000
55.4513 0.000
55.4810 0.017
55.5106 0.000
55.5403 0.000
55.5699 0.000
55.5996 0.000
55.6293 0.000
55.6589 0.000
55.6886 0.000
55.7182 0.000
55.7479 0.000
55.7775 0.000
55.8072 0.000
55.8368 0.000
55.8665 0.000
55.8962 0.000
55.9258 0.000
55.9555 0.000
55.9851 0.000
56.0148 0.000
56.0444 0.000
56.0741 0.017
56.1038 0.017
56.1334 0.000
56.1631 0.000
56.1927 0.000
56.2224 0.000
56.2520 0.000
56.2817 0.000
56.3113 0.000
56.3410 0.000
56.3707 0.000
56.4003 0.000
56.4300 0.000
56.4596 0.000
56.4893 0.000
56.5189 0.000
56.5486 0.000
56.5783 0.000
56.6079 0.000
56.6376 0.000
56.6672 0.017
56.6969 0.000
56.7265 0.000
56.7562 0.000
56.7859 0.000
56.8155 0.000
56.8452 0.000
56.8748 0.000
56.9045 0.000
56.9341 0.000
56.9638 0.000
56.9934 0.000
57.0231 0.000
57.0528 0.000
57.0824 0.000
57.1121 0.000
57.1417 0.000
57.1714 0.000
57.2010 0.000
57.2307 0.000
57.2604 0.017
57.2900 0.000
57.3197 0.000
57.3493 0.000
57.3790 0.000
57.4086 0.017
57.4383 0.035
57.4679 0.052
57.4976 0.052
57.5273 0.017
57.5569 0.017
57.5866 0.052
57.6162 0.087
57.6459 0.000
57.6755 0.017
57.7052 0.017
57.7349 0.035
57.7645 0.000
57.7942 0.000
57.8238 0.000
57.8535 0.000
57.8831 0.000
57.9128 0.000
57.9424 0.000
57.9721 0.000
58.0018 0.000
58.0314 0.000
58.0611 0.017
58.0907 0.000
58.1204 0.000
58.1500 0.017
58.1797 0.000
58.2094 0.000
58.2390 0.000
58.2687 0.000
58.2983 0.000
58.3280 0.000
58.3576 0.000
58.3873 0.000
58.4169 0.000
58.4466 0.000
58.4763 0.000
58.5059 0.000
58.5356 0.000
58.5652 0.000
58.5949 0.000
58.6245 0.000
58.6542 0.000
58.6839 0.000
58.7135 0.000
58.7432 0.000
58.7728 0.000
58.8025 0.000
58.8321 0.000
58.8618 0.000
58.8914 0.000
58.9211 0.000
58.9508 0.000
58.9804 0.000
59.0101 0.017
59.0397 0.000
59.0694 0.000
59.0990 0.000
59.1287 0.000
59.1584 0.000
59.1880 0.000
59.2177 0.000
59.2473 0.000
59.2770 0.000
59.3066 0.000
59.3363 0.000
59.3660 0.000
59.3956 0.000
59.4253 0.000
59.4549 0.000
59.4846 0.000
59.5142 0.000
59.5439 0.000
59.5735 0.000
59.6032 0.000
59.6329 0.000
59.6625 0.000
59.6922 0.000
59.7218 0.000
59.7515 0.000
59.7811 0.000
59.8108 0.000
59.8405 0.017
59.8701 0.017
59.8998 0.000
59.9294 0.000
59.9591 0.000
59.9887 0.000
60.0184 0.000
60.0480 0.000
60.0777 0.000
60.1074 0.000
60.1370 0.000
60.1667 0.000
60.1963 0.000
60.2260 0.000
60.2556 0.000
60.2853 0.017
60.3150 0.000
60.3446 0.000
60.3743 0.000
60.4039 0.000
60.4336 0.000
60.4632 0.017
60.4929 0.000
60.5225 0.000
60.5522 0.000
60.5819 0.017
60.6115 0.000
60.6412 0.000
60.6708 0.000
60.7005 0.000
60.7301 0.000
60.7598 0.000
60.7895 0.000
60.8191 0.000
60.8488 0.000
60.8784 0.000
60.9081 0.000
60.9377 0.000
60.9674 0.000
60.9970 0.017
61.0267 0.000
61.0564 0.000
61.0860 0.000
61.1157 0.000
61.1453 0.000
61.1750 0.000
61.2046 0.000
61.2343 0.000
61.2640 0.000
61.2936 0.000
61.3233 0.000
61.3529 0.000
61.3826 0.017
61.4122 0.000
61.4419 0.000
61.4715 0.000
61.5012 0.000
61.5309 0.000
61.5605 0.000
61.5902 0.000
61.6198 0.000
61.6495 0.000
61.6791 0.000
61.7088 0.000
61.7385 0.000
61.7681 0.000
61.7978 0.000
61.8274 0.000
61.8571 0.000
61.8867 0.000
61.9164 0.000
61.9461 0.000
61.9757 0.000
62.0054 0.000
62.0350 0.000
62.0647 0.000
62.0943 0.000
62.1240 0.000
62.1536 0.000
62.1833 0.000
62.2130 0.000
62.2426 0.000
62.2723 0.000
62.3019 0.000
62.3316 0.017
62.3612 0.000
62.3909 0.000
62.4206 0.000
62.4502 0.000
62.4799 0.000
62.5095 0.000
62.5392 0.000
62.5688 0.000
62.5985 0.000
62.6281 0.000
62.6578 0.035
62.6875 0.017
62.7171 0.000
62.7468 0.000
62.7764 0.000
62.8061 0.000
62.8357 0.000
62.8654 0.000
62.8951 0.000
62.9247 0.000
62.9544 0.000
62.9840 0.000
63.0137 0.000
63.0433 0.000
63.0730 0.000
63.1026 0.000
63.1323 0.000
63.1620 0.000
63.1916 0.000
63.2213 0.000
63.2509 0.000
63.2806 0.000
63.3102 0.000
63.3399 0.000
63.3696 0.000
63.3992 0.000
63.4289 0.035
63.4585 0.000
63.4882 0.000
63.5178 0.017
63.5475 0.000
63.5771 0.000
63.6068 0.000
63.6365 0.000
63.6661 0.000
63.6958 0.000
63.7254 0.017
63.7551 0.000
63.7847 0.000
63.8144 0.000
63.8441 0.000
63.8737 0.000
63.9034 0.000
63.9330 0.000
63.9627 0.000
63.9923 0.000
64.0220 0.000
64.0516 0.000
64.0813 0.000
64.1110 0.000
64.1406 0.000
64.1703 0.000
64.1999 0.000
64.2296 0.000
64.2592 0.000
64.2889 0.000
64.3186 0.000
64.3482 0.000
64.3779 0.000
64.4075 0.000
64.4372 0.000
64.4668 0.000
64.4965 0.000
64.5261 0.000
64.5558 0.000
64.5855 0.000
64.6151 0.000
64.6448 0.000
64.6744 0.000
64.7041 0.000
64.7337 0.000
64.7634 0.000
64.7931 0.000
64.8227 0.000
64.8524 0.000
64.8820 0.000
64.9117 0.000
64.9413 0.000
64.9710 0.000
65.0007 0.000
65.0303 0.000
65.0600 0.000
65.0896 0.000
65.1193 0.000
65.1489 0.000
65.1786 0.000
65.2082 0.000
65.2379 0.000
65.2676 0.000
65.2972 0.000
65.3269 0.000
65.3565 0.000
65.3862 0.000
65.4158 0.000
65.4455 0.000
65.4752 0.000
65.5048 0.000
65.5345 0.000
65.5641 0.000
65.5938 0.000
65.6234 0.000
65.6531 0.000
65.6827 0.000
65.7124 0.000
65.7421 0.000
65.7717 0.000
65.8014 0.000
65.8310 0.000
65.8607 0.000
65.8903 0.000
65.9200 0.000
65.9497 0.000
65.9793 0.000
66.0090 0.000
66.0386 0.000
66.0683 0.000
66.0979 0.000
66.1276 0.000
66.1572 0.000
66.1869 0.000
66.2166 0.000
66.2462 0.000
66.2759 0.000
66.3055 0.000
66.3352 0.000
66.3648 0.000
66.3945 0.000
66.4242 0.000
66.4538 0.000
66.4835 0.000
66.5131 0.000
66.5428 0.000
66.5724 0.000
66.6021 0.000
66.6317 0.000
66.6614 0.000
66.6911 0.000
66.7207 0.000
66.7504 0.000
66.7800 0.000
66.8097 0.000
66.8393 0.000
66.8690 0.000
66.8987 0.000
66.9283 0.017
66.9580 0.000
66.9876 0.000
67.0173 0.000
67.0469 0.000
67.0766 0.000
67.1062 0.000
67.1359 0.000
67.1656 0.000
67.1952 0.000
67.2249 0.000
67.2545 0.000
67.2842 0.000
67.3138 0.000
67.3435 0.000
67.3732 0.000
67.4028 0.000
67.4325 0.000
67.4621 0.000
67.4918 0.000
67.5214 0.000
67.5511 0.000
67.5808 0.000
67.6104 0.000
67.6401 0.000
67.6697 0.000
67.6994 0.000
67.7290 0.017
67.7587 0.000
67.7883 0.000
67.8180 0.000
67.8477 0.000
67.8773 0.000
67.9070 0.000
67.9366 0.000
67.9663 0.000
67.9959 0.000
68.0256 0.000
68.0553 0.000
68.0849 0.000
68.1146 0.000
68.1442 0.000
68.1739 0.017
68.2035 0.000
68.2332 0.000
68.2628 0.000
68.2925 0.000
68.3222 0.000
68.3518 0.000
68.3815 0.000
68.4111 0.000
68.4408 0.000
68.4704 0.000
68.5001 0.000
68.5298 0.000
68.5594 0.000
68.5891 0.000
68.6187 0.000
68.6484 0.000
68.6780 0.000
68.7077 0.000
68.7373 0.017
68.7670 0.000
68.7967 0.000
68.8263 0.000
68.8560 0.000
68.8856 0.000
68.9153 0.000
68.9449 0.000
68.9746 0.000
69.0043 0.000
69.0339 0.000
69.0636 0.000
69.0932 0.000
69.1229 0.000
69.1525 0.000
69.1822 0.000
69.2118 0.000
69.2415 0.000
69.2712 0.017
69.3008 0.000
69.3305 0.000
69.3601 0.000
69.3898 0.000
69.4194 0.000
69.4491 0.017
69.4788 0.000
69.5084 0.000
69.5381 0.000
69.5677 0.000
69.5974 0.000
69.6270 0.000
69.6567 0.017
69.6863 0.000
69.7160 0.000
69.7457 0.000
69.7753 0.000
69.8050 0.000
69.8346 0.000
69.8643 0.000
69.8939 0.000
69.9236 0.000
69.9533 0.000
69.9829 0.000
70.0126 0.000
70.0422 0.000
70.0719 0.000
70.1015 0.000
70.1312 0.000
70.1608 0.017
70.1905 0.000
70.2202 0.000
70.2498 0.000
70.2795 0.000
70.3091 0.000
70.3388 0.017
70.3684 0.017
70.3981 0.000
70.4278 0.000
70.4574 0.000
70.4871 0.000
70.5167 0.000
70.5464 0.000
70.5760 0.000
70.6057 0.035
70.6354 0.000
70.6650 0.017
70.6947 0.000
70.7243 0.000
70.7540 0.000
70.7836 0.017
70.8133 0.000
70.8429 0.000
70.8726 0.000
70.9023 0.000
70.9319 0.000
70.9616 0.000
70.9912 0.000
71.0209 0.000
71.0505 0.000
71.0802 0.000
71.1099 0.000
71.1395 0.000
71.1692 0.017
71.1988 0.017
71.2285 0.000
71.2581 0.000
71.2878 0.000
71.3174 0.000
71.3471 0.000
71.3768 0.000
71.4064 0.000
71.4361 0.000
71.4657 0.000
71.4954 0.000
71.5250 0.000
71.5547 0.000
71.5844 0.000
71.6140 0.000
71.6437 0.000
71.6733 0.000
71.7030 0.000
71.7326 0.000
71.7623 0.000
71.7919 0.000
71.8216 0.000
71.8513 0.000
71.8809 0.000
71.9106 0.000
71.9402 0.000
71.9699 0.000
71.9995 0.000
72.0292 0.000
72.0589 0.000
72.0885 0.000
72.1182 0.000
72.1478 0.000
72.1775 0.000
72.2071 0.000
72.2368 0.000
72.2664 0.000
72.2961 0.000
72.3258 0.000
72.3554 0.017
72.3851 0.000
72.4147 0.000
72.4444 0.000
72.4740 0.000
72.5037 0.000
72.5334 0.035
72.5630 0.000
72.5927 0.000
72.6223 0.000
72.6520 0.000
72.6816 0.000
72.7113 0.000
72.7409 0.000
72.7706 0.017
72.8003 0.000
72.8299 0.000
72.8596 0.000
72.8892 0.000
72.9189 0.000
72.9485 0.000
72.9782 0.017
73.0079 0.000
73.0375 0.000
73.0672 0.017
73.0968 0.000
73.1265 0.000
73.1561 0.000
73.1858 0.000
73.2155 0.000
73.2451 0.000
73.2748 0.000
73.3044 0.000
73.3341 0.000
73.3637 0.000
73.3934 0.000
73.4230 0.000
73.4527 0.000
73.4824 0.000
73.5120 0.000
73.5417 0.017
73.5713 0.000
73.6010 0.000
73.6306 0.017
73.6603 0.000
73.6900 0.000
73.7196 0.000
73.7493 0.000
73.7789 0.000
73.8086 0.000
73.8382 0.000
73.8679 0.000
73.8975 0.000
73.9272 0.000
73.9569 0.000
73.9865 0.000
74.0162 0.000
74.0458 0.000
74.0755 0.000
74.1051 0.000
74.1348 0.000
74.1645 0.017
74.1941 0.000
74.2238 0.000
74.2534 0.000
74.2831 0.000
74.3127 0.000
74.3424 0.000
74.3720 0.017
74.4017 0.000
74.4314 0.000
74.4610 0.000
74.4907 0.000
74.5203 0.000
74.5500 0.000
74.5796 0.000
74.6093 0.000
74.6390 0.000
74.6686 0.000
74.6983 0.000
74.7279 0.000
74.7576 0.000
74.7872 0.000
74.8169 0.000
74.8465 0.000
74.8762 0.000
74.9059 0.000
74.9355 0.000
74.9652 0.000
74.9948 0.000
